# Pbox   1430.00  13 4095  0.0     0    1.0000 0.32765     3
# VJ3.0  pw (us)  pwr  pwrf  dres  dmf  dcyc   B1max (kHz)  Stype
# ---------------------------------------------------------------
# Pxsim 0.0014300 298.0525 0.000 5874.1 0.0000000 0.0000000 0.00
# data: pw (s) B1max (Hz) status sw (Hz) T1 (s)   T2 (s) RDC (Hz)
# ---------------------------------------------------------------
# Pbox.inp data :
# ~~~~~~~~~~~~~~~~~~~~~~~~~~~Waves~~~~~~~~~~~~~~~~~~~~~~~~~~~~~~~~~~
#   shape   bw(/pw)   ofs  st  ph  fla  trev  d1  d2   d0   wrp  php
# ~~~~~~~~~~~~~~~~~~~~~~~~~~~~~~~~~~~~~~~~~~~~~~~~~~~~~~~~~~~~~~~~~~
# { sinc 0.001427 0.0 0.0 }
#
# type      = r          mod       = n          dres      = n         
# steps     = n          stepsize  = n          attn      = i         
# refofs    = n          wrap      = n          sfrq      = n         
# sucyc     = d          reps      = 2          header    = y         
# bscor     = n          pad1      = n          pad2      = n         
# bsim      = n          T1        = n          T2        = n         
# rdc       = n          dcyc      = n          sw        = n         
#
# RF Calibration Data :  ref_pwr   = 53         ref_pw90  = 7.63
# ~~~~~~~~~~~~~~~~~~~~~
###
# ------------------- Shape data ------------------
# pwtot      = 0.0014300 (total pw, s)
# power      = 13 (power level, dB)
# pwrf       = 4095 (fine power)
# B1max      = 0.3277 (B1max, kHz)
# B1rms      = 0.1998 (B1[RMS], kHz)
# nptot      = 200 (total number of steps)
# stepsize   = 7.15 (length of a single step, us)
# maxamp     = 931.5 (max amplitude)
# ------------------------------------------------- 
#      phase      amplitude   length     gate 
# ------------------------------------------------- 
        0.00      1023.00      0.0        0
       0.000        0.000      1.0        0
       0.000        8.456      1.0        1
       0.000       18.096      1.0        1
       0.000       27.916      1.0        1
       0.000       37.913      1.0        1
       0.000       48.083      1.0        1
       0.000       58.420      1.0        1
       0.000       68.921      1.0        1
       0.000       79.582      1.0        1
       0.000       90.396      1.0        1
       0.000      101.360      1.0        1
       0.000      112.469      1.0        1
       0.000      123.718      1.0        1
       0.000      135.100      1.0        1
       0.000      146.612      1.0        1
       0.000      158.247      1.0        1
       0.000      170.000      1.0        1
       0.000      181.866      1.0        1
       0.000      193.838      1.0        1
       0.000      205.911      1.0        1
       0.000      218.079      1.0        1
       0.000      230.336      1.0        1
       0.000      242.676      1.0        1
       0.000      255.092      1.0        1
       0.000      267.578      1.0        1
       0.000      280.128      1.0        1
       0.000      292.736      1.0        1
       0.000      305.395      1.0        1
       0.000      318.098      1.0        1
       0.000      330.838      1.0        1
       0.000      343.610      1.0        1
       0.000      356.407      1.0        1
       0.000      369.220      1.0        1
       0.000      382.045      1.0        1
       0.000      394.874      1.0        1
       0.000      407.699      1.0        1
       0.000      420.515      1.0        1
       0.000      433.314      1.0        1
       0.000      446.089      1.0        1
       0.000      458.834      1.0        1
       0.000      471.541      1.0        1
       0.000      484.203      1.0        1
       0.000      496.814      1.0        1
       0.000      509.365      1.0        1
       0.000      521.852      1.0        1
       0.000      534.266      1.0        1
       0.000      546.600      1.0        1
       0.000      558.848      1.0        1
       0.000      571.002      1.0        1
       0.000      583.057      1.0        1
       0.000      595.005      1.0        1
       0.000      606.839      1.0        1
       0.000      618.552      1.0        1
       0.000      630.139      1.0        1
       0.000      641.592      1.0        1
       0.000      652.904      1.0        1
       0.000      664.070      1.0        1
       0.000      675.083      1.0        1
       0.000      685.937      1.0        1
       0.000      696.625      1.0        1
       0.000      707.141      1.0        1
       0.000      717.479      1.0        1
       0.000      727.633      1.0        1
       0.000      737.597      1.0        1
       0.000      747.365      1.0        1
       0.000      756.933      1.0        1
       0.000      766.293      1.0        1
       0.000      775.441      1.0        1
       0.000      784.371      1.0        1
       0.000      793.079      1.0        1
       0.000      801.558      1.0        1
       0.000      809.804      1.0        1
       0.000      817.813      1.0        1
       0.000      825.578      1.0        1
       0.000      833.097      1.0        1
       0.000      840.364      1.0        1
       0.000      847.375      1.0        1
       0.000      854.126      1.0        1
       0.000      860.613      1.0        1
       0.000      866.832      1.0        1
       0.000      872.779      1.0        1
       0.000      878.452      1.0        1
       0.000      883.845      1.0        1
       0.000      888.957      1.0        1
       0.000      893.785      1.0        1
       0.000      898.325      1.0        1
       0.000      902.574      1.0        1
       0.000      906.531      1.0        1
       0.000      910.192      1.0        1
       0.000      913.556      1.0        1
       0.000      916.621      1.0        1
       0.000      919.384      1.0        1
       0.000      921.845      1.0        1
       0.000      924.001      1.0        1
       0.000      925.852      1.0        1
       0.000      927.396      1.0        1
       0.000      928.632      1.0        1
       0.000      929.559      1.0        1
       0.000      930.178      1.0        1
       0.000      930.488      2.0        1
       0.000      930.178      1.0        1
       0.000      929.559      1.0        1
       0.000      928.632      1.0        1
       0.000      927.396      1.0        1
       0.000      925.852      1.0        1
       0.000      924.001      1.0        1
       0.000      921.845      1.0        1
       0.000      919.384      1.0        1
       0.000      916.621      1.0        1
       0.000      913.556      1.0        1
       0.000      910.192      1.0        1
       0.000      906.531      1.0        1
       0.000      902.574      1.0        1
       0.000      898.325      1.0        1
       0.000      893.785      1.0        1
       0.000      888.957      1.0        1
       0.000      883.845      1.0        1
       0.000      878.452      1.0        1
       0.000      872.779      1.0        1
       0.000      866.832      1.0        1
       0.000      860.613      1.0        1
       0.000      854.126      1.0        1
       0.000      847.375      1.0        1
       0.000      840.364      1.0        1
       0.000      833.097      1.0        1
       0.000      825.578      1.0        1
       0.000      817.813      1.0        1
       0.000      809.804      1.0        1
       0.000      801.558      1.0        1
       0.000      793.079      1.0        1
       0.000      784.371      1.0        1
       0.000      775.441      1.0        1
       0.000      766.293      1.0        1
       0.000      756.933      1.0        1
       0.000      747.365      1.0        1
       0.000      737.597      1.0        1
       0.000      727.633      1.0        1
       0.000      717.479      1.0        1
       0.000      707.141      1.0        1
       0.000      696.625      1.0        1
       0.000      685.937      1.0        1
       0.000      675.083      1.0        1
       0.000      664.070      1.0        1
       0.000      652.904      1.0        1
       0.000      641.592      1.0        1
       0.000      630.139      1.0        1
       0.000      618.552      1.0        1
       0.000      606.839      1.0        1
       0.000      595.005      1.0        1
       0.000      583.057      1.0        1
       0.000      571.002      1.0        1
       0.000      558.848      1.0        1
       0.000      546.600      1.0        1
       0.000      534.266      1.0        1
       0.000      521.852      1.0        1
       0.000      509.365      1.0        1
       0.000      496.814      1.0        1
       0.000      484.203      1.0        1
       0.000      471.541      1.0        1
       0.000      458.834      1.0        1
       0.000      446.089      1.0        1
       0.000      433.314      1.0        1
       0.000      420.515      1.0        1
       0.000      407.699      1.0        1
       0.000      394.874      1.0        1
       0.000      382.045      1.0        1
       0.000      369.220      1.0        1
       0.000      356.407      1.0        1
       0.000      343.610      1.0        1
       0.000      330.838      1.0        1
       0.000      318.098      1.0        1
       0.000      305.395      1.0        1
       0.000      292.736      1.0        1
       0.000      280.128      1.0        1
       0.000      267.578      1.0        1
       0.000      255.092      1.0        1
       0.000      242.676      1.0        1
       0.000      230.336      1.0        1
       0.000      218.079      1.0        1
       0.000      205.911      1.0        1
       0.000      193.838      1.0        1
       0.000      181.866      1.0        1
       0.000      170.000      1.0        1
       0.000      158.247      1.0        1
       0.000      146.612      1.0        1
       0.000      135.100      1.0        1
       0.000      123.718      1.0        1
       0.000      112.469      1.0        1
       0.000      101.360      1.0        1
       0.000       90.396      1.0        1
       0.000       79.582      1.0        1
       0.000       68.921      1.0        1
       0.000       58.420      1.0        1
       0.000       48.083      1.0        1
       0.000       37.913      1.0        1
       0.000       27.916      1.0        1
       0.000       18.096      1.0        1
       0.000        8.456      1.0        1
       0.000        0.000      1.0        0
